2015-03-11	13:08
Amplitude: 1,00 V
Freq  (Hz) 	 Gain (dB)  	 Phase (deg)
5000,085            -31,892             87,033
5038,455            -31,815             87,302
5077,384            -31,675             86,675
5116,500            -31,357             91,231
5155,802            -31,481             87,208
5195,662            -31,413             87,670
5235,709            -31,290             87,297
5275,942            -31,162             86,908
5316,548            -31,068             87,234
5357,526            -30,921             86,787
5398,877            -30,839             87,130
5440,414            -30,686             86,179
5482,323            -30,566             86,553
5524,606            -30,457             85,601
5567,260            -30,337             88,997
5610,101            -30,219             86,902
5653,314            -30,157             62,771
5696,900            -30,035             63,931
5740,859            -29,854             88,648
5785,003            -29,728             85,601
5829,521            -29,591             88,896
5874,410            -29,358             76,465
5919,673            -29,387             85,673
5965,307            -29,148             62,943
6011,315            -29,130            111,287
6057,695            -28,965             85,868
6104,261            -28,843             86,377
6151,386            -28,466             89,675
6198,697            -28,667             63,256
6246,567            -28,424             85,873
6294,623            -28,307             87,902
6343,052            -28,119             86,033
6392,039            -28,006             86,323
6441,213            -27,878             84,682
6490,946            -27,709             85,353
6540,865            -27,542             87,191
6591,342            -27,388             86,035
6642,006            -27,248             85,810
6693,229            -27,085             85,193
6744,824            -26,889             85,913
6796,792            -26,797             85,858
6849,132            -26,659             85,940
6901,845            -26,523             85,523
6955,117            -26,352             84,828
7008,761            -26,082             85,278
7062,778            -25,976             84,860
7117,167            -25,861             85,472
7171,929            -25,591             84,210
7227,249            -25,397             85,079
7282,943            -25,130             84,990
7339,008            -25,050             84,577
7395,633            -24,735             84,071
7452,443            -24,525             84,345
7509,999            -24,371             84,047
7567,741            -24,134             84,604
7626,042            -23,953             84,160
7684,901            -23,820             84,657
7744,133            -23,627             84,148
7803,738            -23,346             83,874
7863,902            -23,031             83,774
7924,438            -22,871             83,416
7985,532            -22,626             82,791
8047,000            -22,370             83,083
8109,026            -22,087             82,209
8171,611            -21,823             82,792
8234,568            -21,526             83,643
8297,898            -21,272             82,341
8361,787            -20,974             82,141
8426,234            -20,651             82,119
8491,240            -20,366             81,288
8556,619            -20,044             81,130
8622,557            -19,738             80,230
8689,053            -19,392             80,732
8755,922            -18,998             80,348
8823,350            -18,647             80,178
8891,337            -18,266             79,454
8959,882            -17,833             78,860
9028,986            -17,413             78,347
9098,463            -16,919             77,982
9168,684            -16,494             77,335
9239,279            -16,000             76,443
9310,432            -15,478             75,830
9382,144            -14,945             75,046
9454,414            -14,351             73,816
9527,244            -13,735             72,978
9600,632            -13,094             71,300
9674,765            -12,371             69,216
9749,271            -11,610             67,630
9824,336            -10,777             65,614
9899,959             -9,913             62,392
9976,327             -8,949             58,989
10053,255             -7,908             54,047
10130,554             -6,820             48,922
10208,599             -5,668             41,714
10287,389             -4,613             31,678
10366,552             -3,736             19,463
10446,459             -3,247              5,393
10526,925             -3,305             -8,998
10608,137             -3,878            -22,554
10689,721             -4,803            -34,101
10772,236             -5,849            -43,480
10855,123             -6,959            -50,172
10938,756             -8,039            -56,033
11023,134             -9,056            -59,912
11108,071            -10,008            -63,370
11193,566            -10,876            -66,215
11279,806            -11,669            -68,172
11366,792            -12,446            -70,768
11454,336            -13,152            -71,569
11542,626            -13,806            -73,166
11631,474            -14,412            -74,643
11721,067            -14,963            -75,408
11811,405            -15,528            -76,464
11902,489            -16,058            -77,480
11994,131            -16,521            -77,533
12086,518            -16,995            -78,819
12179,650            -17,463            -79,199
12273,528            -17,871            -79,916
12368,150            -18,302            -80,316
12463,331            -18,704            -80,887
12559,444            -19,066            -80,767
12656,115            -19,436            -81,575
12753,718            -19,747            -81,746
12852,065            -20,089            -81,975
12950,972            -20,391            -82,048
13050,810            -20,670            -82,321
13151,392            -21,042            -82,339
13252,720            -21,304            -83,005
13354,793            -21,588            -83,489
13457,611            -21,887            -83,576
13561,361            -22,113            -83,799
13665,855            -22,356            -83,578
13771,094            -22,605            -83,924
13877,265            -22,883            -84,196
13984,181            -23,130            -84,366
14091,842            -23,334            -84,637
14200,434            -23,597            -84,252
14309,958            -23,826            -84,787
14420,226            -24,015            -84,665
14531,240            -24,197            -85,451
14643,185            -24,392            -85,548
14756,061            -24,613            -84,883
14869,682            -24,807            -85,304
14984,235            -25,029            -85,895
15099,719            -25,277            -86,222
15216,134            -25,455            -85,222
15333,295            -25,653            -85,570
15451,387            -25,782            -85,744
15570,596            -26,033            -86,505
15690,550            -26,118            -83,958
15811,436            -26,400            -85,810
15933,253            -26,598            -86,206
16056,001            -26,672            -84,656
16179,681            -26,869            -86,346
16304,292            -26,955            -86,013
16430,020            -27,120            -86,432
16556,494            -27,244            -85,098
16684,085            -27,440            -86,472
16812,608            -27,561            -86,039
16942,248            -27,715            -84,409
17072,819            -27,852            -85,371
17204,322            -28,012            -86,183
17336,756            -28,136            -87,235
17470,494            -28,365            -86,310
17604,977            -28,447            -85,967
17740,577            -28,603            -86,715
17877,296            -28,725            -86,877
18015,131            -28,914            -86,281
18153,898            -29,064            -87,061
18293,783            -29,111            -86,433
18434,785            -29,252            -86,970
18576,719            -29,389            -86,451
18719,956            -29,509            -87,132
18864,125            -29,632            -87,102
19009,411            -29,815            -86,853
19156,002            -29,882            -87,037
19303,523            -30,009            -86,859
19452,348            -30,107            -87,120
19602,105            -30,252            -87,669
19753,166            -30,358            -87,263
19905,344            -30,468            -87,360
20058,639            -30,583            -87,028
20213,239            -30,717            -87,533
20368,956            -30,833            -87,312
20525,977            -30,945            -87,232
20684,116            -31,063            -87,653
20843,558            -31,170            -87,637
21004,118            -31,299            -87,571
21165,982            -31,417            -87,324
21328,963            -31,528            -87,338
21493,249            -31,609            -87,776
21658,838            -31,749            -87,374
21825,731            -31,834            -87,566
21993,928            -31,961            -87,449
22163,428            -32,043            -87,797
22334,233            -32,164            -87,330
22506,341            -32,249            -87,682
22679,754            -32,372            -87,670
22854,470            -32,466            -87,788
23030,490            -32,587            -87,979
23208,000            -32,693            -87,847
23386,814            -32,767            -87,739
23566,931            -32,880            -87,857
23748,539            -32,976            -87,871
23931,451            -33,077            -87,853
24115,853            -33,165            -87,849
24301,745            -33,271            -87,924
24488,941            -33,371            -87,995
24677,627            -33,473            -88,527
24867,803            -33,582            -88,048
